#EXPORTTYPE:DATA SINGLE
#FTYPE:ANSI
#IDENTITY:005920
#DECIMAL:POINT
#SEPARATOR:SEMICOLON
#MTYPE:DSC
#SENSITIVITY:SENSZERO.EXX
#SAMPLE:1
#SAMPLE MASS /mg:9.99
#MATERIAL:
#REFERENCE:
#REFERENCE MASS /mg:0
#TYPE OF CRUCIBLE:DSC/TG pan Al2O3
#SAMPLE CRUCIBLE MASS /mg:0
#REFERENCE CRUCIBLE MASS /mg:0
#DSC RANGE /V:5000
#TG RANGE /mg:5000
#TAU-R:---
#CORR. CODE:020
#EXO:+1
#RANGE:35C/00:00/35C/5,0(K/min)/920C/
#SEGMENT:S1-2/2
#SEG. 1:35C/00:15/35C
#SEG. 2:35C/5,0(K/min)/920C

##Temp./C;Time/min;DSC/(uV/mg);Sensit./(uV/mW);Segment
 34.17900;  0.00000;-1.4510e-003;1.00000;1
 34.17636;  0.25000;-1.2219e-003;1.00000;1
 34.17971;  0.50000;-1.5274e-003;1.00000;1
 34.17888;  0.75000;-1.1456e-003;1.00000;1
 34.17688;  1.00000;-1.3747e-003;1.00000;1
 34.17253;  1.25000;-1.2983e-003;1.00000;1
 34.17059;  1.50000;-1.2983e-003;1.00000;1
 34.16876;  1.75000;-9.1644e-004;1.00000;1
 34.16682;  2.00000;-6.8733e-004;1.00000;1
 34.16441;  2.25000;-2.1384e-003;1.00000;1
 34.16576;  2.50000;-1.6801e-003;1.00000;1
 34.17024;  2.75000;-1.6038e-003;1.00000;1
 34.16623;  3.00000;-1.4510e-003;1.00000;1
 34.16288;  3.25000;-1.6801e-003;1.00000;1
 34.16018;  3.50000;-9.1644e-004;1.00000;1
 34.15800;  3.75000;-1.1456e-003;1.00000;1
 34.16165;  4.00000;-1.6038e-003;1.00000;1
 34.16312;  4.25000;-1.0692e-003;1.00000;1
 34.16582;  4.50000;-1.2983e-003;1.00000;1
 34.16759;  4.75000;-1.8329e-003;1.00000;1
 34.16271;  5.00000;-2.0620e-003;1.00000;1
 34.15965;  5.25000;-1.7565e-003;1.00000;1
 34.15641;  5.50000;-2.4439e-003;1.00000;1
 34.15535;  5.75000;-1.9856e-003;1.00000;1
 34.15588;  6.00000;-6.1096e-004;1.00000;1
 34.15641;  6.25000;-1.2983e-003;1.00000;1
 34.15753;  6.50000;-8.4007e-004;1.00000;1
 34.15565;  6.75000;-1.2983e-003;1.00000;1
 34.15471;  7.00000;-2.1384e-003;1.00000;1
 34.15547;  7.25000;-1.4510e-003;1.00000;1
 34.15894;  7.50000;-1.8329e-003;1.00000;1
 34.15988;  7.75000;-1.3747e-003;1.00000;1
 34.15700;  8.00000;-1.6801e-003;1.00000;1
 34.15382;  8.25000;-1.4510e-003;1.00000;1
 34.15247;  8.50000;-1.9093e-003;1.00000;1
 34.15324;  8.75000;-1.5274e-003;1.00000;1
 34.15406;  9.00000;-1.6038e-003;1.00000;1
 34.15082;  9.25000;-1.7565e-003;1.00000;1
 34.15171;  9.50000;-1.2983e-003;1.00000;1
 34.15165;  9.75000;-2.3675e-003;1.00000;1
 34.15165; 10.00000;-1.4510e-003;1.00000;1
 34.15094; 10.25000;-1.2983e-003;1.00000;1
 34.14553; 10.50000;-1.2983e-003;1.00000;1
 34.14282; 10.75000;-1.6801e-003;1.00000;1
 34.14235; 11.00000;-1.6801e-003;1.00000;1
 34.13906; 11.25000;-2.0620e-003;1.00000;1
 34.13618; 11.50000;-1.5274e-003;1.00000;1
 34.13253; 11.75000;-1.3747e-003;1.00000;1
 34.12859; 12.00000;-1.2983e-003;1.00000;1
 34.12518; 12.25000;-1.4510e-003;1.00000;1
 34.12371; 12.50000;-1.9093e-003;1.00000;1
 34.12300; 12.75000;-1.7565e-003;1.00000;1
 34.12447; 13.00000;-2.1384e-003;1.00000;1
 34.12429; 13.25000;-1.0692e-003;1.00000;1
 34.12471; 13.50000;-1.2219e-003;1.00000;1
 34.12024; 13.75000;-1.9093e-003;1.00000;1
 34.11500; 14.00000;-1.5274e-003;1.00000;1
 34.10647; 14.25000;-1.8329e-003;1.00000;1
 34.10235; 14.50000;-1.6038e-003;1.00000;1
 34.10264; 14.75000;-1.2983e-003;1.00000;1
 34.11549; 15.00000;-1.8819e-003;1.00000;2
 34.10516; 15.25000;-1.6845e-003;1.00000;2
 34.13672; 15.50000;-1.6708e-003;1.00000;2
 34.23371; 15.75000;-2.5749e-003;1.00000;2
 34.42622; 16.00000;-4.6939e-003;1.00000;2
 34.72104; 16.25000;-6.0171e-003;1.00000;2
 35.12375; 16.50000;-8.9817e-003;1.00000;2
 35.61708; 16.75000;-1.1186e-002;1.00000;2
 36.19250; 17.00000;-1.4563e-002;1.00000;2
 36.83655; 17.25000;-1.6637e-002;1.00000;2
 37.54164; 17.50000;-1.8963e-002;1.00000;2
 38.29774; 17.75000;-2.0783e-002;1.00000;2
 39.09878; 18.00000;-2.2553e-002;1.00000;2
 39.94421; 18.25000;-2.3899e-002;1.00000;2
 40.82469; 18.50000;-2.5590e-002;1.00000;2
 41.74540; 18.75000;-2.7168e-002;1.00000;2
 42.69183; 19.00000;-2.8700e-002;1.00000;2
 43.66753; 19.25000;-3.0042e-002;1.00000;2
 44.66731; 19.50000;-3.1491e-002;1.00000;2
 45.69280; 19.75000;-3.2617e-002;1.00000;2
 46.74168; 20.00000;-3.3235e-002;1.00000;2
 47.80570; 20.25000;-3.4580e-002;1.00000;2
 48.88834; 20.50000;-3.5701e-002;1.00000;2
 49.98967; 20.75000;-3.7179e-002;1.00000;2
 51.10446; 21.00000;-3.9461e-002;1.00000;2
 52.23305; 21.25000;-4.0564e-002;1.00000;2
 53.37523; 21.50000;-4.1104e-002;1.00000;2
 54.52530; 21.75000;-4.2261e-002;1.00000;2
 55.68474; 22.00000;-4.2180e-002;1.00000;2
 56.85935; 22.25000;-4.4563e-002;1.00000;2
 58.04364; 22.50000;-4.7194e-002;1.00000;2
 59.23476; 22.75000;-4.8497e-002;1.00000;2
 60.43665; 23.00000;-4.8979e-002;1.00000;2
 61.64896; 23.25000;-4.0101e-002;1.00000;2
 62.86358; 23.50000;-4.0105e-002;1.00000;2
 64.08470; 23.75000;-3.9882e-002;1.00000;2
 65.30787; 24.00000;-3.9380e-002;1.00000;2
 66.53528; 24.25000;-3.8062e-002;1.00000;2
 67.76738; 24.50000;-3.8816e-002;1.00000;2
 69.00398; 24.75000;-3.8560e-002;1.00000;2
 70.24448; 25.00000;-3.9173e-002;1.00000;2
 71.48621; 25.25000;-4.1016e-002;1.00000;2
 72.72937; 25.50000;-4.1364e-002;1.00000;2
 73.97395; 25.75000;-4.2301e-002;1.00000;2
 75.22398; 26.00000;-4.1701e-002;1.00000;2
 76.46965; 26.25000;-4.1475e-002;1.00000;2
 77.71669; 26.50000;-4.2599e-002;1.00000;2
 78.96561; 26.75000;-4.0770e-002;1.00000;2
 80.21691; 27.00000;-4.3098e-002;1.00000;2
 81.47146; 27.25000;-4.4683e-002;1.00000;2
 82.72618; 27.50000;-4.1534e-002;1.00000;2
 83.98380; 27.75000;-4.1112e-002;1.00000;2
 85.24469; 28.00000;-4.1489e-002;1.00000;2
 86.50762; 28.25000;-4.0208e-002;1.00000;2
 87.77336; 28.50000;-3.8184e-002;1.00000;2
 89.03755; 28.75000;-3.6630e-002;1.00000;2
 90.30329; 29.00000;-3.4878e-002;1.00000;2
 91.56980; 29.25000;-3.5280e-002;1.00000;2
 92.84121; 29.50000;-3.6866e-002;1.00000;2
 94.11325; 29.75000;-3.6673e-002;1.00000;2
 95.38379; 30.00000;-3.7171e-002;1.00000;2
 96.65528; 30.25000;-3.8400e-002;1.00000;2
 97.92917; 30.50000;-3.9664e-002;1.00000;2
 99.20502; 30.75000;-3.9077e-002;1.00000;2
100.48187; 31.00000;-4.0039e-002;1.00000;2
101.76103; 31.25000;-3.9950e-002;1.00000;2
103.04010; 31.50000;-3.9283e-002;1.00000;2
104.31801; 31.75000;-3.8157e-002;1.00000;2
105.59486; 32.00000;-3.7457e-002;1.00000;2
106.87277; 32.25000;-3.5620e-002;1.00000;2
108.14964; 32.50000;-3.4645e-002;1.00000;2
109.42405; 32.75000;-3.4759e-002;1.00000;2
110.69828; 33.00000;-3.4143e-002;1.00000;2
111.97273; 33.25000;-3.4688e-002;1.00000;2
113.24768; 33.50000;-3.5386e-002;1.00000;2
114.52430; 33.75000;-3.7119e-002;1.00000;2
115.79992; 34.00000;-3.7691e-002;1.00000;2
117.07061; 34.25000;-3.7946e-002;1.00000;2
118.34429; 34.50000;-3.7821e-002;1.00000;2
119.61531; 34.75000;-3.5985e-002;1.00000;2
120.88649; 35.00000;-3.6809e-002;1.00000;2
122.16033; 35.25000;-3.5836e-002;1.00000;2
123.43437; 35.50000;-3.5570e-002;1.00000;2
124.70811; 35.75000;-3.7218e-002;1.00000;2
125.98445; 36.00000;-3.6516e-002;1.00000;2
127.25882; 36.25000;-3.1204e-002;1.00000;2
128.53598; 36.50000;-2.9689e-002;1.00000;2
129.81523; 36.75000;-2.9935e-002;1.00000;2
131.09562; 37.00000;-3.6576e-002;1.00000;2
132.37539; 37.25000;-3.6980e-002;1.00000;2
133.65610; 37.50000;-3.7431e-002;1.00000;2
134.93464; 37.75000;-3.6987e-002;1.00000;2
136.21274; 38.00000;-3.5805e-002;1.00000;2
137.49378; 38.25000;-3.4586e-002;1.00000;2
138.77313; 38.50000;-3.4164e-002;1.00000;2
140.05453; 38.75000;-3.1014e-002;1.00000;2
141.33595; 39.00000;-3.2652e-002;1.00000;2
142.61859; 39.25000;-3.9510e-002;1.00000;2
143.90183; 39.50000;-4.0268e-002;1.00000;2
145.18944; 39.75000;-3.7580e-002;1.00000;2
146.47718; 40.00000;-3.6885e-002;1.00000;2
147.76393; 40.25000;-3.6630e-002;1.00000;2
149.05209; 40.50000;-3.6850e-002;1.00000;2
150.34080; 40.75000;-3.6563e-002;1.00000;2
151.62972; 41.00000;-3.6631e-002;1.00000;2
152.91426; 41.25000;-3.5924e-002;1.00000;2
154.20148; 41.50000;-3.5936e-002;1.00000;2
155.49062; 41.75000;-3.8522e-002;1.00000;2
156.77878; 42.00000;-3.6746e-002;1.00000;2
158.06561; 42.25000;-3.6517e-002;1.00000;2
159.35196; 42.50000;-3.6056e-002;1.00000;2
160.63758; 42.75000;-3.5082e-002;1.00000;2
161.92341; 43.00000;-3.5427e-002;1.00000;2
163.20860; 43.25000;-3.3825e-002;1.00000;2
164.49280; 43.50000;-3.4833e-002;1.00000;2
165.78154; 43.75000;-3.6553e-002;1.00000;2
167.06936; 44.00000;-3.5359e-002;1.00000;2
168.34977; 44.25000;-3.2753e-002;1.00000;2
169.63009; 44.50000;-3.2221e-002;1.00000;2
170.91554; 44.75000;-3.0700e-002;1.00000;2
172.19972; 45.00000;-2.9214e-002;1.00000;2
173.48406; 45.25000;-3.0608e-002;1.00000;2
174.77172; 45.50000;-3.0586e-002;1.00000;2
176.05543; 45.75000;-2.8881e-002;1.00000;2
177.33935; 46.00000;-2.6277e-002;1.00000;2
178.62420; 46.25000;-2.5789e-002;1.00000;2
179.90738; 46.50000;-2.6925e-002;1.00000;2
181.18829; 46.75000;-3.7287e-002;1.00000;2
182.47006; 47.00000;-3.6901e-002;1.00000;2
183.75097; 47.25000;-3.4691e-002;1.00000;2
185.03425; 47.50000;-3.1434e-002;1.00000;2
186.31782; 47.75000;-2.6561e-002;1.00000;2
187.59983; 48.00000;-2.5448e-002;1.00000;2
188.88373; 48.25000;-2.3639e-002;1.00000;2
190.16923; 48.50000;-2.4732e-002;1.00000;2
191.45527; 48.75000;-2.8121e-002;1.00000;2
192.74072; 49.00000;-2.6282e-002;1.00000;2
194.02732; 49.25000;-2.5955e-002;1.00000;2
195.31354; 49.50000;-2.6574e-002;1.00000;2
196.59608; 49.75000;-2.6995e-002;1.00000;2
197.87824; 50.00000;-2.9004e-002;1.00000;2
199.16401; 50.25000;-2.4817e-002;1.00000;2
200.44764; 50.50000;-2.5663e-002;1.00000;2
201.73136; 50.75000;-3.1069e-002;1.00000;2
203.01783; 51.00000;-3.0022e-002;1.00000;2
204.30347; 51.25000;-2.6811e-002;1.00000;2
205.58928; 51.50000;-2.6282e-002;1.00000;2
206.87537; 51.75000;-2.6412e-002;1.00000;2
208.15991; 52.00000;-2.6369e-002;1.00000;2
209.44345; 52.25000;-2.6475e-002;1.00000;2
210.72681; 52.50000;-2.6799e-002;1.00000;2
212.01088; 52.75000;-2.6744e-002;1.00000;2
213.29360; 53.00000;-2.6312e-002;1.00000;2
214.57380; 53.25000;-2.6927e-002;1.00000;2
215.85693; 53.50000;-2.5661e-002;1.00000;2
217.13760; 53.75000;-2.5077e-002;1.00000;2
218.41693; 54.00000;-2.3800e-002;1.00000;2
219.69612; 54.25000;-2.3385e-002;1.00000;2
220.97422; 54.50000;-2.3602e-002;1.00000;2
222.25371; 54.75000;-2.3259e-002;1.00000;2
223.53235; 55.00000;-2.3208e-002;1.00000;2
224.81021; 55.25000;-2.2395e-002;1.00000;2
226.09061; 55.50000;-2.2782e-002;1.00000;2
227.36843; 55.75000;-2.2738e-002;1.00000;2
228.64768; 56.00000;-2.1974e-002;1.00000;2
229.92791; 56.25000;-2.1334e-002;1.00000;2
231.20642; 56.50000;-2.0895e-002;1.00000;2
232.48561; 56.75000;-2.0966e-002;1.00000;2
233.76529; 57.00000;-2.0759e-002;1.00000;2
235.04474; 57.25000;-2.1235e-002;1.00000;2
236.32303; 57.50000;-2.0491e-002;1.00000;2
237.60062; 57.75000;-1.9685e-002;1.00000;2
238.87774; 58.00000;-1.9527e-002;1.00000;2
240.15528; 58.25000;-1.9299e-002;1.00000;2
241.43348; 58.50000;-1.8000e-002;1.00000;2
242.71028; 58.75000;-1.8020e-002;1.00000;2
243.98549; 59.00000;-1.7378e-002;1.00000;2
245.26213; 59.25000;-1.7121e-002;1.00000;2
246.53866; 59.50000;-1.6968e-002;1.00000;2
247.81596; 59.75000;-1.5952e-002;1.00000;2
249.09604; 60.00000;-1.5824e-002;1.00000;2
250.37415; 60.25000;-1.5964e-002;1.00000;2
251.65413; 60.50000;-1.4507e-002;1.00000;2
252.93088; 60.75000;-1.4045e-002;1.00000;2
254.20527; 61.00000;-1.3357e-002;1.00000;2
255.48188; 61.25000;-1.3118e-002;1.00000;2
256.75935; 61.50000;-1.2698e-002;1.00000;2
258.03566; 61.75000;-1.2025e-002;1.00000;2
259.31061; 62.00000;-1.2128e-002;1.00000;2
260.59130; 62.25000;-1.2682e-002;1.00000;2
261.86723; 62.50000;-1.1698e-002;1.00000;2
263.14207; 62.75000;-1.1079e-002;1.00000;2
264.42040; 63.00000;-1.0403e-002;1.00000;2
265.69965; 63.25000;-1.0405e-002;1.00000;2
266.97776; 63.50000;-8.9981e-003;1.00000;2
268.25613; 63.75000;-9.6277e-003;1.00000;2
269.53536; 64.00000;-8.1255e-003;1.00000;2
270.81200; 64.25000;-8.0249e-003;1.00000;2
272.08608; 64.50000;-7.6377e-003;1.00000;2
273.35924; 64.75000;-7.4108e-003;1.00000;2
274.63184; 65.00000;-7.1381e-003;1.00000;2
275.90614; 65.25000;-7.1834e-003;1.00000;2
277.18125; 65.50000;-6.8136e-003;1.00000;2
278.45575; 65.75000;-6.0991e-003;1.00000;2
279.72908; 66.00000;-5.1825e-003;1.00000;2
281.00597; 66.25000;-4.5035e-003;1.00000;2
282.28424; 66.50000;-4.2997e-003;1.00000;2
283.55969; 66.75000;-3.0031e-003;1.00000;2
284.83607; 67.00000;-2.2279e-003;1.00000;2
286.11123; 67.25000;-2.3550e-003;1.00000;2
287.38776; 67.50000;-2.0759e-003;1.00000;2
288.66564; 67.75000;-1.8555e-003;1.00000;2
289.93998; 68.00000;-1.2224e-003;1.00000;2
291.21275; 68.25000;-1.0711e-003;1.00000;2
292.48485; 68.50000;-6.0755e-004;1.00000;2
293.75679; 68.75000;-4.5049e-004;1.00000;2
295.03095; 69.00000;-4.1845e-004;1.00000;2
296.30732; 69.25000; 1.5028e-003;1.00000;2
297.58201; 69.50000; 1.3041e-003;1.00000;2
298.85590; 69.75000; 1.1491e-003;1.00000;2
300.12904; 70.00000; 1.8941e-003;1.00000;2
301.40185; 70.25000; 2.3739e-003;1.00000;2
302.67501; 70.50000; 2.5761e-003;1.00000;2
303.94703; 70.75000; 3.1047e-003;1.00000;2
305.21803; 71.00000; 3.9979e-003;1.00000;2
306.48649; 71.25000; 3.1528e-003;1.00000;2
307.75531; 71.50000; 3.4322e-003;1.00000;2
309.02802; 71.75000; 3.9809e-003;1.00000;2
310.29853; 72.00000; 4.1490e-003;1.00000;2
311.56769; 72.25000; 4.3746e-003;1.00000;2
312.83753; 72.50000; 5.0298e-003;1.00000;2
314.10683; 72.75000; 6.4906e-003;1.00000;2
315.37299; 73.00000; 6.7889e-003;1.00000;2
316.64198; 73.25000; 7.1567e-003;1.00000;2
317.91197; 73.50000; 7.2102e-003;1.00000;2
319.18090; 73.75000; 7.8680e-003;1.00000;2
320.44907; 74.00000; 8.4435e-003;1.00000;2
321.71930; 74.25000; 8.6967e-003;1.00000;2
322.98787; 74.50000; 1.0103e-002;1.00000;2
324.25798; 74.75000; 1.0582e-002;1.00000;2
325.52625; 75.00000; 1.0854e-002;1.00000;2
326.79460; 75.25000; 1.0914e-002;1.00000;2
328.06304; 75.50000; 1.2303e-002;1.00000;2
329.33185; 75.75000; 1.2459e-002;1.00000;2
330.59915; 76.00000; 1.3596e-002;1.00000;2
331.86755; 76.25000; 1.2892e-002;1.00000;2
333.13933; 76.50000; 1.4259e-002;1.00000;2
334.40904; 76.75000; 1.5021e-002;1.00000;2
335.67245; 77.00000; 1.5225e-002;1.00000;2
336.93544; 77.25000; 1.5420e-002;1.00000;2
338.20055; 77.50000; 1.6739e-002;1.00000;2
339.46693; 77.75000; 1.6891e-002;1.00000;2
340.73428; 78.00000; 1.7366e-002;1.00000;2
342.00115; 78.25000; 1.7795e-002;1.00000;2
343.26709; 78.50000; 1.8767e-002;1.00000;2
344.53291; 78.75000; 1.9409e-002;1.00000;2
345.80069; 79.00000; 1.9706e-002;1.00000;2
347.06785; 79.25000; 2.0091e-002;1.00000;2
348.33190; 79.50000; 2.1083e-002;1.00000;2
349.59639; 79.75000; 2.2474e-002;1.00000;2
350.86188; 80.00000; 2.3072e-002;1.00000;2
352.12710; 80.25000; 2.3993e-002;1.00000;2
353.39172; 80.50000; 2.4391e-002;1.00000;2
354.65781; 80.75000; 2.5706e-002;1.00000;2
355.92307; 81.00000; 2.6209e-002;1.00000;2
357.18959; 81.25000; 2.7051e-002;1.00000;2
358.45673; 81.50000; 2.7966e-002;1.00000;2
359.72250; 81.75000; 2.9209e-002;1.00000;2
360.98529; 82.00000; 2.9429e-002;1.00000;2
362.24810; 82.25000; 3.0190e-002;1.00000;2
363.51337; 82.50000; 3.0643e-002;1.00000;2
364.77634; 82.75000; 3.1601e-002;1.00000;2
366.03935; 83.00000; 3.2743e-002;1.00000;2
367.30312; 83.25000; 3.2406e-002;1.00000;2
368.56488; 83.50000; 3.4333e-002;1.00000;2
369.82594; 83.75000; 3.5495e-002;1.00000;2
371.08644; 84.00000; 3.6114e-002;1.00000;2
372.34910; 84.25000; 3.7060e-002;1.00000;2
373.61130; 84.50000; 3.8278e-002;1.00000;2
374.87039; 84.75000; 3.9270e-002;1.00000;2
376.13427; 85.00000; 3.8910e-002;1.00000;2
377.39720; 85.25000; 4.0593e-002;1.00000;2
378.65996; 85.50000; 4.1444e-002;1.00000;2
379.92084; 85.75000; 4.2462e-002;1.00000;2
381.17904; 86.00000; 4.2748e-002;1.00000;2
382.43822; 86.25000; 4.4075e-002;1.00000;2
383.69957; 86.50000; 4.4822e-002;1.00000;2
384.95855; 86.75000; 4.6562e-002;1.00000;2
386.21780; 87.00000; 4.7498e-002;1.00000;2
387.47842; 87.25000; 4.8560e-002;1.00000;2
388.73801; 87.50000; 4.9332e-002;1.00000;2
389.99809; 87.75000; 5.0387e-002;1.00000;2
391.25439; 88.00000; 5.1616e-002;1.00000;2
392.51012; 88.25000; 5.2424e-002;1.00000;2
393.77304; 88.50000; 5.3535e-002;1.00000;2
395.03540; 88.75000; 5.4532e-002;1.00000;2
396.29712; 89.00000; 5.5629e-002;1.00000;2
397.55643; 89.25000; 5.6737e-002;1.00000;2
398.81709; 89.50000; 5.8057e-002;1.00000;2
400.07888; 89.75000; 5.8843e-002;1.00000;2
401.33978; 90.00000; 6.0287e-002;1.00000;2
402.59868; 90.25000; 6.1043e-002;1.00000;2
403.85839; 90.50000; 6.2765e-002;1.00000;2
405.11936; 90.75000; 6.3344e-002;1.00000;2
406.37907; 91.00000; 6.3942e-002;1.00000;2
407.63825; 91.25000; 6.5838e-002;1.00000;2
408.90137; 91.50000; 6.7072e-002;1.00000;2
410.15997; 91.75000; 6.8330e-002;1.00000;2
411.41797; 92.00000; 6.9161e-002;1.00000;2
412.67616; 92.25000; 7.0320e-002;1.00000;2
413.93518; 92.50000; 7.0255e-002;1.00000;2
415.19164; 92.75000; 7.2275e-002;1.00000;2
416.44950; 93.00000; 7.3042e-002;1.00000;2
417.70611; 93.25000; 7.4896e-002;1.00000;2
418.96380; 93.50000; 7.6239e-002;1.00000;2
420.22125; 93.75000; 7.6896e-002;1.00000;2
421.47783; 94.00000; 7.7454e-002;1.00000;2
422.73340; 94.25000; 7.8210e-002;1.00000;2
423.98984; 94.50000; 7.9501e-002;1.00000;2
425.24798; 94.75000; 8.0042e-002;1.00000;2
426.50623; 95.00000; 8.1513e-002;1.00000;2
427.76242; 95.25000; 8.3943e-002;1.00000;2
429.01907; 95.50000; 8.5313e-002;1.00000;2
430.27473; 95.75000; 8.5905e-002;1.00000;2
431.53449; 96.00000; 8.7233e-002;1.00000;2
432.79547; 96.25000; 8.9017e-002;1.00000;2
434.05343; 96.50000; 8.9674e-002;1.00000;2
435.31265; 96.75000; 9.1704e-002;1.00000;2
436.57329; 97.00000; 9.3413e-002;1.00000;2
437.83529; 97.25000; 9.5273e-002;1.00000;2
439.09275; 97.50000; 9.4406e-002;1.00000;2
440.34770; 97.75000; 9.5698e-002;1.00000;2
441.60436; 98.00000; 9.7099e-002;1.00000;2
442.85881; 98.25000; 9.8065e-002;1.00000;2
444.11734; 98.50000;     0.10047;1.00000;2
445.37682; 98.75000;     0.10143;1.00000;2
446.63769; 99.00000;     0.10287;1.00000;2
447.89790; 99.25000;     0.10356;1.00000;2
449.15915; 99.50000;     0.10556;1.00000;2
450.41896; 99.75000;     0.10631;1.00000;2
451.67637;100.00000;     0.10776;1.00000;2
452.93349;100.25000;     0.10924;1.00000;2
454.18906;100.50000;     0.11006;1.00000;2
455.44180;100.75000;     0.11241;1.00000;2
456.69625;101.00000;     0.11286;1.00000;2
457.95020;101.25000;     0.11448;1.00000;2
459.20187;101.50000;     0.11604;1.00000;2
460.45538;101.75000;     0.11708;1.00000;2
461.71293;102.00000;     0.11903;1.00000;2
462.96792;102.25000;     0.12037;1.00000;2
464.22181;102.50000;     0.12190;1.00000;2
465.47410;102.75000;     0.12329;1.00000;2
466.72711;103.00000;     0.12418;1.00000;2
467.97989;103.25000;     0.12533;1.00000;2
469.23256;103.50000;     0.12599;1.00000;2
470.48607;103.75000;     0.12753;1.00000;2
471.73886;104.00000;     0.12903;1.00000;2
472.99183;104.25000;     0.13016;1.00000;2
474.24319;104.50000;     0.13135;1.00000;2
475.49470;104.75000;     0.13173;1.00000;2
476.74682;105.00000;     0.13310;1.00000;2
477.99780;105.25000;     0.13422;1.00000;2
479.24884;105.50000;     0.13526;1.00000;2
480.50127;105.75000;     0.13711;1.00000;2
481.75305;106.00000;     0.13832;1.00000;2
483.00552;106.25000;     0.13944;1.00000;2
484.25633;106.50000;     0.14048;1.00000;2
485.50699;106.75000;     0.14153;1.00000;2
486.76037;107.00000;     0.14303;1.00000;2
488.01307;107.25000;     0.14386;1.00000;2
489.26592;107.50000;     0.14618;1.00000;2
490.51994;107.75000;     0.14610;1.00000;2
491.77211;108.00000;     0.14745;1.00000;2
493.02381;108.25000;     0.14846;1.00000;2
494.27758;108.50000;     0.14947;1.00000;2
495.53053;108.75000;     0.15003;1.00000;2
496.78162;109.00000;     0.15178;1.00000;2
498.03446;109.25000;     0.15169;1.00000;2
499.28728;109.50000;     0.15284;1.00000;2
500.54115;109.75000;     0.15412;1.00000;2
501.79570;110.00000;     0.15741;1.00000;2
503.04837;110.25000;     0.15959;1.00000;2
504.30081;110.50000;     0.16102;1.00000;2
505.55352;110.75000;     0.16269;1.00000;2
506.80422;111.00000;     0.16361;1.00000;2
508.05466;111.25000;     0.16590;1.00000;2
509.30698;111.50000;     0.16816;1.00000;2
510.56153;111.75000;     0.17091;1.00000;2
511.79767;112.00000;     0.17396;1.00000;2
513.03393;112.25000;     0.33893;1.00000;2
514.31439;112.50000;     0.47923;1.00000;2
515.60267;112.75000;     0.56642;1.00000;2
516.89114;113.00000;     0.63386;1.00000;2
518.17694;113.25000;     0.68896;1.00000;2
519.45943;113.50000;     0.73654;1.00000;2
520.74009;113.75000;     0.77893;1.00000;2
522.02135;114.00000;     0.80831;1.00000;2
523.31841;114.25000;     0.82651;1.00000;2
524.65846;114.50000;     0.80126;1.00000;2
526.02518;114.75000;     0.77894;1.00000;2
527.43730;115.00000;     0.73988;1.00000;2
528.91427;115.25000;     0.82503;1.00000;2
530.34023;115.50000;     0.94151;1.00000;2
531.69136;115.75000;     1.00892;1.00000;2
532.99981;116.00000;     1.06824;1.00000;2
534.27673;116.25000;     1.10704;1.00000;2
535.53155;116.50000;     1.13837;1.00000;2
536.76971;116.75000;     1.16368;1.00000;2
537.99608;117.00000;     1.18442;1.00000;2
539.21808;117.25000;     1.20254;1.00000;2
540.43685;117.50000;     1.21841;1.00000;2
541.65391;117.75000;     1.23086;1.00000;2
542.87079;118.00000;     1.24167;1.00000;2
544.08577;118.25000;     1.25038;1.00000;2
545.29940;118.50000;     1.25729;1.00000;2
546.51408;118.75000;     1.26473;1.00000;2
547.73081;119.00000;     1.27011;1.00000;2
548.94731;119.25000;     1.27284;1.00000;2
550.16303;119.50000;     1.27481;1.00000;2
551.38091;119.75000;     1.27526;1.00000;2
552.60092;120.00000;     1.27566;1.00000;2
553.82300;120.25000;     1.27794;1.00000;2
555.04616;120.50000;     1.27679;1.00000;2
556.27060;120.75000;     1.27541;1.00000;2
557.49705;121.00000;     1.27322;1.00000;2
558.72281;121.25000;     1.27069;1.00000;2
559.94718;121.50000;     1.27217;1.00000;2
561.17195;121.75000;     1.27109;1.00000;2
562.39775;122.00000;     1.26847;1.00000;2
563.62401;122.25000;     1.26415;1.00000;2
564.84990;122.50000;     1.26107;1.00000;2
566.07719;122.75000;     1.26001;1.00000;2
567.30459;123.00000;     1.26035;1.00000;2
568.53556;123.25000;     1.25599;1.00000;2
569.76588;123.50000;     1.25656;1.00000;2
570.99541;123.75000;     1.25465;1.00000;2
572.22268;124.00000;     1.25332;1.00000;2
573.45063;124.25000;     1.25377;1.00000;2
574.68457;124.50000;     1.25376;1.00000;2
575.91688;124.75000;     1.25246;1.00000;2
577.14862;125.00000;     1.25341;1.00000;2
578.38872;125.25000;     1.25942;1.00000;2
579.63101;125.50000;     1.26049;1.00000;2
580.86820;125.75000;     1.26003;1.00000;2
582.10690;126.00000;     1.26017;1.00000;2
583.34579;126.25000;     1.26315;1.00000;2
584.58099;126.50000;     1.26408;1.00000;2
585.81596;126.75000;     1.26721;1.00000;2
587.05229;127.00000;     1.29128;1.00000;2
588.28760;127.25000;     1.29052;1.00000;2
589.52354;127.50000;     1.28978;1.00000;2
590.75890;127.75000;     1.29321;1.00000;2
591.99843;128.00000;     1.29643;1.00000;2
593.23967;128.25000;     1.30046;1.00000;2
594.48051;128.50000;     1.30339;1.00000;2
595.72253;128.75000;     1.30815;1.00000;2
596.96414;129.00000;     1.31019;1.00000;2
598.20708;129.25000;     1.31975;1.00000;2
599.45067;129.50000;     1.32126;1.00000;2
600.69309;129.75000;     1.32686;1.00000;2
601.93552;130.00000;     1.32937;1.00000;2
603.17808;130.25000;     1.33385;1.00000;2
604.42145;130.50000;     1.33726;1.00000;2
605.66623;130.75000;     1.34587;1.00000;2
606.90861;131.00000;     1.34761;1.00000;2
608.15011;131.25000;     1.35233;1.00000;2
609.39333;131.50000;     1.35615;1.00000;2
610.63595;131.75000;     1.36008;1.00000;2
611.87783;132.00000;     1.36310;1.00000;2
613.12313;132.25000;     1.36711;1.00000;2
614.36584;132.50000;     1.37069;1.00000;2
615.60710;132.75000;     1.37261;1.00000;2
616.84820;133.00000;     1.37589;1.00000;2
618.08904;133.25000;     1.37832;1.00000;2
619.33030;133.50000;     1.37917;1.00000;2
620.57247;133.75000;     1.38315;1.00000;2
621.81521;134.00000;     1.38668;1.00000;2
623.05379;134.25000;     1.38550;1.00000;2
624.29356;134.50000;     1.38428;1.00000;2
625.53400;134.75000;     1.38718;1.00000;2
626.77557;135.00000;     1.38872;1.00000;2
628.01476;135.25000;     1.38687;1.00000;2
629.25352;135.50000;     1.38760;1.00000;2
630.49168;135.75000;     1.38717;1.00000;2
631.72643;136.00000;     1.38494;1.00000;2
632.96171;136.25000;     1.38099;1.00000;2
634.19639;136.50000;     1.38686;1.00000;2
635.43054;136.75000;     1.38012;1.00000;2
636.66650;137.00000;     1.37900;1.00000;2
637.90129;137.25000;     1.37577;1.00000;2
639.13785;137.50000;     1.37206;1.00000;2
640.37426;137.75000;     1.36634;1.00000;2
641.61084;138.00000;     1.36339;1.00000;2
642.84821;138.25000;     1.35840;1.00000;2
644.08657;138.50000;     1.35167;1.00000;2
645.32256;138.75000;     1.34551;1.00000;2
646.55795;139.00000;     1.33775;1.00000;2
647.79259;139.25000;     1.32901;1.00000;2
649.02743;139.50000;     1.32302;1.00000;2
650.26134;139.75000;     1.31509;1.00000;2
651.49313;140.00000;     1.30678;1.00000;2
652.72526;140.25000;     1.29465;1.00000;2
653.95775;140.50000;     1.28487;1.00000;2
655.18763;140.75000;     1.27410;1.00000;2
656.41660;141.00000;     1.26260;1.00000;2
657.64601;141.25000;     1.25073;1.00000;2
658.87412;141.50000;     1.23977;1.00000;2
660.10143;141.75000;     1.22548;1.00000;2
661.33029;142.00000;     1.20982;1.00000;2
662.55916;142.25000;     1.19549;1.00000;2
663.78665;142.50000;     1.17974;1.00000;2
665.01700;142.75000;     1.16206;1.00000;2
666.24737;143.00000;     1.14492;1.00000;2
667.47440;143.25000;     1.12455;1.00000;2
668.70292;143.50000;     1.10209;1.00000;2
669.93097;143.75000;     1.08243;1.00000;2
671.15414;144.00000;     1.05493;1.00000;2
672.37582;144.25000;     1.02893;1.00000;2
673.59741;144.50000;     0.99827;1.00000;2
674.81840;144.75000;     0.96715;1.00000;2
676.03891;145.00000;     0.93029;1.00000;2
677.25819;145.25000;     0.89269;1.00000;2
678.47688;145.50000;     0.85268;1.00000;2
679.69699;145.75000;     0.81066;1.00000;2
680.91548;146.00000;     0.76412;1.00000;2
682.13134;146.25000;     0.71180;1.00000;2
683.34619;146.50000;     0.65538;1.00000;2
684.55985;146.75000;     0.60002;1.00000;2
685.77544;147.00000;     0.53755;1.00000;2
686.98574;147.25000;     0.47662;1.00000;2
688.19631;147.50000;     0.41255;1.00000;2
689.40668;147.75000;     0.34605;1.00000;2
690.61771;148.00000;     0.28546;1.00000;2
691.83061;148.25000;     0.23043;1.00000;2
693.04255;148.50000;     0.17878;1.00000;2
694.25602;148.75000;     0.13568;1.00000;2
695.47319;149.00000;     0.10143;1.00000;2
696.69398;149.25000; 7.4009e-002;1.00000;2
697.91586;149.50000; 5.5007e-002;1.00000;2
699.14164;149.75000; 4.0170e-002;1.00000;2
700.37065;150.00000; 3.0215e-002;1.00000;2
701.60075;150.25000; 2.1831e-002;1.00000;2
702.83051;150.50000; 1.7980e-002;1.00000;2
704.06034;150.75000; 1.6107e-002;1.00000;2
705.29073;151.00000; 1.3505e-002;1.00000;2
706.52578;151.25000; 1.1170e-002;1.00000;2
707.76142;151.50000; 1.0762e-002;1.00000;2
708.99947;151.75000; 1.2441e-002;1.00000;2
710.23597;152.00000; 1.0056e-002;1.00000;2
711.47132;152.25000; 8.4939e-003;1.00000;2
712.70910;152.50000; 8.4723e-003;1.00000;2
713.94498;152.75000; 7.6372e-003;1.00000;2
715.18051;153.00000; 8.5182e-003;1.00000;2
716.41598;153.25000; 7.8725e-003;1.00000;2
717.64937;153.50000; 8.9737e-003;1.00000;2
718.88539;153.75000; 8.5370e-003;1.00000;2
720.12085;154.00000; 8.2383e-003;1.00000;2
721.35710;154.25000; 7.7722e-003;1.00000;2
722.59216;154.50000; 6.7958e-003;1.00000;2
723.82674;154.75000; 7.5203e-003;1.00000;2
725.06143;155.00000; 6.5420e-003;1.00000;2
726.29598;155.25000; 4.6408e-003;1.00000;2
727.53204;155.50000; 6.0420e-003;1.00000;2
728.76945;155.75000; 6.7942e-003;1.00000;2
730.00617;156.00000; 7.4833e-003;1.00000;2
731.24206;156.25000; 6.2249e-003;1.00000;2
732.47824;156.50000; 7.3863e-003;1.00000;2
733.71248;156.75000; 7.2795e-003;1.00000;2
734.95014;157.00000; 7.5469e-003;1.00000;2
736.18665;157.25000; 5.8574e-003;1.00000;2
737.42311;157.50000; 5.6056e-003;1.00000;2
738.66134;157.75000; 7.1089e-003;1.00000;2
739.89823;158.00000; 4.9858e-003;1.00000;2
741.13524;158.25000; 6.1401e-003;1.00000;2
742.37096;158.50000; 6.4262e-003;1.00000;2
743.60685;158.75000; 5.9880e-003;1.00000;2
744.84184;159.00000; 6.4813e-003;1.00000;2
746.07470;159.25000; 5.5539e-003;1.00000;2
747.30754;159.50000; 5.3228e-003;1.00000;2
748.54211;159.75000; 4.9570e-003;1.00000;2
749.77401;160.00000; 5.1909e-003;1.00000;2
751.00673;160.25000; 3.7353e-003;1.00000;2
752.24085;160.50000; 4.0568e-003;1.00000;2
753.47352;160.75000; 3.8725e-003;1.00000;2
754.70893;161.00000; 1.1120e-003;1.00000;2
755.94445;161.25000; 4.2328e-003;1.00000;2
757.17855;161.50000; 3.2413e-003;1.00000;2
758.41213;161.75000; 3.4488e-003;1.00000;2
759.64654;162.00000; 2.6988e-003;1.00000;2
760.88041;162.25000; 2.1268e-003;1.00000;2
762.11627;162.50000; 1.3139e-003;1.00000;2
763.35118;162.75000; 1.9571e-003;1.00000;2
764.58722;163.00000; 2.1621e-003;1.00000;2
765.82332;163.25000; 1.9417e-003;1.00000;2
767.05869;163.50000;-1.1003e-003;1.00000;2
768.29501;163.75000; 2.3189e-004;1.00000;2
769.53183;164.00000; 1.0848e-003;1.00000;2
770.76952;164.25000; 1.1716e-003;1.00000;2
772.00806;164.50000;-1.4280e-003;1.00000;2
773.24657;164.75000;-3.4771e-004;1.00000;2
774.48443;165.00000;-1.6543e-003;1.00000;2
775.72237;165.25000; 2.2461e-004;1.00000;2
776.96229;165.50000;-1.6126e-003;1.00000;2
778.19980;165.75000;-1.2222e-003;1.00000;2
779.43603;166.00000;-2.3571e-003;1.00000;2
780.67127;166.25000;-3.1356e-003;1.00000;2
781.90496;166.50000;-2.9229e-003;1.00000;2
783.13976;166.75000;-2.5171e-003;1.00000;2
784.37550;167.00000;-3.3344e-003;1.00000;2
785.60911;167.25000;-4.1355e-003;1.00000;2
786.84159;167.50000;-3.6617e-003;1.00000;2
788.07654;167.75000;-4.2181e-003;1.00000;2
789.31232;168.00000;-4.9795e-003;1.00000;2
790.54753;168.25000;-4.5460e-003;1.00000;2
791.78212;168.50000;-4.6151e-003;1.00000;2
793.01725;168.75000;-5.4210e-003;1.00000;2
794.25524;169.00000;-4.8088e-003;1.00000;2
795.49293;169.25000;-7.1153e-003;1.00000;2
796.72949;169.50000;-5.9008e-003;1.00000;2
797.96624;169.75000;-6.0988e-003;1.00000;2
799.20028;170.00000;-6.4735e-003;1.00000;2
800.43547;170.25000;-6.7054e-003;1.00000;2
801.67162;170.50000;-6.9642e-003;1.00000;2
802.90479;170.75000;-7.2330e-003;1.00000;2
804.14132;171.00000;-7.5035e-003;1.00000;2
805.37873;171.25000;-8.9805e-003;1.00000;2
806.61295;171.50000;-1.0258e-002;1.00000;2
807.84551;171.75000;-1.0379e-002;1.00000;2
809.07993;172.00000;-1.2124e-002;1.00000;2
810.31169;172.25000;-1.2399e-002;1.00000;2
811.54371;172.50000;-1.2617e-002;1.00000;2
812.77867;172.75000;-1.5382e-002;1.00000;2
814.01246;173.00000;-1.6873e-002;1.00000;2
815.24484;173.25000;-1.6598e-002;1.00000;2
816.47487;173.50000;-1.8256e-002;1.00000;2
817.70859;173.75000;-1.8205e-002;1.00000;2
818.94354;174.00000;-1.8621e-002;1.00000;2
820.17685;174.25000;-1.8765e-002;1.00000;2
821.40964;174.50000;-1.6390e-002;1.00000;2
822.64283;174.75000;-1.7119e-002;1.00000;2
823.87678;175.00000;-2.0324e-002;1.00000;2
825.11109;175.25000;-1.9084e-002;1.00000;2
826.34589;175.50000;-2.0093e-002;1.00000;2
827.57988;175.75000;-1.7870e-002;1.00000;2
828.81525;176.00000;-1.8723e-002;1.00000;2
830.05052;176.25000;-1.8401e-002;1.00000;2
831.28266;176.50000;-1.9410e-002;1.00000;2
832.51802;176.75000;-1.7618e-002;1.00000;2
833.75179;177.00000;-1.7461e-002;1.00000;2
834.98725;177.25000;-1.8442e-002;1.00000;2
836.22185;177.50000;-1.9147e-002;1.00000;2
837.45499;177.75000;-1.8111e-002;1.00000;2
838.69067;178.00000;-1.9479e-002;1.00000;2
839.92695;178.25000;-2.0471e-002;1.00000;2
841.16239;178.50000;-2.1248e-002;1.00000;2
842.39641;178.75000;-2.1462e-002;1.00000;2
843.63011;179.00000;-2.1952e-002;1.00000;2
844.86589;179.25000;-2.2147e-002;1.00000;2
846.10147;179.50000;-2.3599e-002;1.00000;2
847.33569;179.75000;-2.2673e-002;1.00000;2
848.56946;180.00000;-2.3428e-002;1.00000;2
849.80118;180.25000;-2.4642e-002;1.00000;2
851.03426;180.50000;-2.6528e-002;1.00000;2
852.26520;180.75000;-2.7357e-002;1.00000;2
853.49962;181.00000;-2.7284e-002;1.00000;2
854.73520;181.25000;-2.8656e-002;1.00000;2
855.96932;181.50000;-2.9322e-002;1.00000;2
857.20286;181.75000;-3.0883e-002;1.00000;2
858.43773;182.00000;-3.1619e-002;1.00000;2
859.67186;182.25000;-3.2686e-002;1.00000;2
860.90436;182.50000;-3.2964e-002;1.00000;2
862.13858;182.75000;-3.2372e-002;1.00000;2
863.37203;183.00000;-3.2291e-002;1.00000;2
864.60703;183.25000;-3.2204e-002;1.00000;2
865.84215;183.50000;-3.2335e-002;1.00000;2
867.07611;183.75000;-3.3124e-002;1.00000;2
868.31209;184.00000;-3.2689e-002;1.00000;2
869.54783;184.25000;-3.3510e-002;1.00000;2
870.78276;184.50000;-3.3959e-002;1.00000;2
872.01770;184.75000;-3.3946e-002;1.00000;2
873.25230;185.00000;-3.4691e-002;1.00000;2
874.48665;185.25000;-3.4837e-002;1.00000;2
875.72051;185.50000;-3.5983e-002;1.00000;2
876.95495;185.75000;-3.5798e-002;1.00000;2
878.18840;186.00000;-3.5875e-002;1.00000;2
879.42137;186.25000;-3.6644e-002;1.00000;2
880.65304;186.50000;-3.7005e-002;1.00000;2
881.88662;186.75000;-3.7002e-002;1.00000;2
883.12136;187.00000;-3.7657e-002;1.00000;2
884.35346;187.25000;-3.6635e-002;1.00000;2
885.58682;187.50000;-3.6359e-002;1.00000;2
886.82156;187.75000;-3.7750e-002;1.00000;2
888.05500;188.00000;-3.7454e-002;1.00000;2
889.28855;188.25000;-3.7277e-002;1.00000;2
890.52117;188.50000;-3.7817e-002;1.00000;2
891.75585;188.75000;-3.8319e-002;1.00000;2
892.98619;189.00000;-3.7561e-002;1.00000;2
894.21612;189.25000;-3.7001e-002;1.00000;2
895.45021;189.50000;-3.7657e-002;1.00000;2
896.68198;189.75000;-3.7283e-002;1.00000;2
897.91234;190.00000;-3.7845e-002;1.00000;2
899.14484;190.25000;-3.7592e-002;1.00000;2
900.37790;190.50000;-3.6347e-002;1.00000;2
901.61041;190.75000;-3.6936e-002;1.00000;2
902.84523;191.00000;-3.7481e-002;1.00000;2
904.07980;191.25000;-3.8901e-002;1.00000;2
905.31537;191.50000;-3.9903e-002;1.00000;2
906.55047;191.75000;-3.9743e-002;1.00000;2

